File: surf_analysis/Henke_Model/sorce_xps_sensitivity.dat
;
;	Model of SORCE XPS Sensitivity based May 2003 Rocket XPS calibration
;
;	Updated with revisions to match TIMED XPS results in sxps_scale_model.pro
;		Tom Woods   5/7/04
;
;	All diode models used 5 micron Si thickness and 7 nm SiO2 outer layer.
;
;	XP#	Coating		Thickness (nm)           Scale Factor      5/7/04 Revisions
;	----	----------	--------------           -------------     -----------------
;	1	Ti/C		387.5/50.0               1.028			/ 1.44
;	2	Ti/C		387.5/50.0               1.024			/ 1.44
;	3	Al/Sc/C		179.1/50.0/25.0          1.16/1.30		/ 1.40 below 10 nm only
;	5	Al/Nb/C		208.9/39.2/47.3          0.368			None - not studied
;	6	Ti/Mo/Au	45.2/111.3/74.1          0.801/1.65		/ 1.44
;	7	Ti/Mo/Si/C	34.0/131.3/103.5/46.1    0.5476			/ 1.8 then / 1.2 above 10 nm
;	9	Al/Cr		175.0/111.4              2.10			None - questionable data
;	10	Al/Mn		175.0/144.7              None			None - not useful data
;
;	REFERENCE:  Tom Woods, private communication, 2004
;
;	IDL USAGE:  data = read_dat( 'sorce_xps_sensitivity.dat' )
;
;		    plot_io, data[0,*], data[1,*], title='XP#1 (Ti/C)', xtitle='Wavelength (nm)', $
;			ytitle='Sensitivity (electrons/photon)'
;
;	CREATION:   Jan. 8, 2004 by Tom Woods, V4 SORCE_XPS
;
FORMAT = (9E16.8)
 301 lines : SORCE XPS Sensitivity Model based on May 2003 Rocket XPS Calibration
 9 columns : Wavelength_nm, XP#1 (e-/ph), XP#2, XP#3, XP#5, XP#6, XP#7, XP#9, XP#10
     0.0413       1.79514       1.78819       1.26357      0.9254       1.06944      0.762778       5.283       2.515
     0.046       2.4875       2.47778       1.75143       1.282       1.47847       1.05556       7.319       3.484
     0.0512       3.4375       3.42431       2.42143       1.772       2.03819       1.45722       10.12       4.816
     0.0569       4.73958       4.72153       3.34       2.443       2.8       2.00611       13.95       6.64
     0.0633       6.51875       6.49306       4.59714       3.36       3.86597       2.78       19.19       9.133
     0.0705       8.93056       8.89583       6.30286       4.618       5.27986       3.81056       26.31       12.52
     0.0784       12.1875       12.1389       8.60714       6.309       7.17361       5.20167       35.92       17.08
     0.0872       16.5625       16.4931       11.7214       8.586       9.72917       7.07222       48.84       23.21
     0.0971       22.4028       22.3125       15.8857       11.64       13.1875       9.57222       66.12       31.41
      0.108       30.1458       30.0278       21.4429       15.7       17.9514       12.9       89.1       42.29
      0.1202       40.3403       40.1806       28.8071       21.09       23.9792       17.2833       119.4       56.61
      0.1337       53.0278       52.8264       38.0929       27.87       31.4583       22.7722       157.5       74.53
      0.1488       69.9306       69.6528       50.5643       36.98       41.3472       30.0944       208.3       98.37
      0.1655       91.1806       90.8333       66.6214       48.68       53.7361       39.4       273       128.6
      0.1842       117.569       117.153       86.9286       63.45       68.9097       51       354       166.3
      0.2049       149.306       148.681       112.143       81.73       86.875       65.1111       453       223
      0.228       186.042       185.278       142.571       103.7       107.153       81.6111       597.1       283.4
      0.2537       254.236       253.264       178       129.2       130.417       101.056       745.9       353.7
      0.2823       310.972       309.722       220.071       157.3       152.014       120.833       911.4       431.5
      0.3141       370.069       368.611       262.357       186       170.069       139.667       1083       511.8
      0.3495       425.694       424.028       302.571       212.2       180.903       154.778       1243       586.1
      0.3889       469.931       468.056       335.071       231.8       182.639       162.833       1369       643
      0.4327       493.403       491.528       353.429       240.3       178.194       167       1432       669.7
      0.4814       488.264       486.389       351.857       236.7       174.931       169.722       1411       655.6
      0.5356       450.556       448.75       327.429       234       169.583       186.333       1294       596.6
      0.596       382.5       380.972       281.286       199.5       204.097       157.167       1091       497.6
      0.6631       291.875       290.764       218.357       153.4       151.944       119.222       825.9       371.8
      0.7378       82.8472       82.5694       63.5071       44.04       41.8889       36.85       232.4       102.8
      0.8209       88.125       87.7778       85.2143       60.12       43.1042       39.9444       297.3       128.8
      0.9134       87.5       87.1528       93.4286       65.21       41.2292       40.6889       308.3       129.9
       1.0163       80       79.7222       97.2857       66.95       36.1875       38.5556       298.4       121.4
       1.1308       66.0972       65.8403       94.8571       64.18       28.5347       33.4167       265.2       103.2
       1.2582       49.9375       49.7431       88.7857       58.81       20.8056       27.1222       219.7       81.11
       1.4       35.875       35.7361       83.7857       53.93       14.7708       21.3278       176.7       61.71
       1.5577       22.3819       22.2986       73.7857       45.98       9.20139       14.6889       127.7       40.85
       1.7332       12.0069       11.9653       61.3       37.03       5.40069       9.52778       86       28.95
       1.9285       5.86458       5.84167       50.5643       29.58       3.07778       5.88889       67.23       16.5
       2.1457       2.35556       2.34653       39.2571       22.08       1.525       3.02167       35.02       81.18
       2.3875       1.50417       1.49861       30.25       16.44      0.803472       1.61944       148.6       63.67
       2.6564      0.459583      0.457778       22.8857       11.58      0.428819      0.877778       112.6       46.65
       2.9557       30.4236       30.3056       16.1       7.97      0.435625      0.735556       83.07       32.56
       3.2887       21.7083       21.6181       18.4429       5.296      0.31125      0.492278       57.3       21.6
       3.6592       14.5625       14.5069       12.7071       3.305      0.254236      0.361056       36.27       13.14
       4.0714       9.47222       9.4375       8.02857       1.862      0.243056      0.293167       21.14       7.12
       4.5301       9.72222       9.68056       5.93071       1.629      0.278542      0.420667       11.03       3.391
       5.0405       6.40833       6.38333       3.54357       1.05      0.740972       1.02333       5.673       1.538
       5.6082       3.76042       3.74583       1.88714      0.7383       1.36458       1.44       2.538      0.6561
       6.24       2.17639       2.16806      0.842143      0.3527       1.42014      0.899444      0.9521      0.2343
       6.9432       1.16458       1.16042      0.280286      0.1073       1.38264      0.429833      0.2523     0.06098
       7.7254      0.590208      0.587917      0.129     0.04609       1.42361      0.298944     0.08815     0.02135
       8.5959      0.364653      0.363264     0.0679214     0.02272       1.34792      0.237889     0.03624    0.008702
       9.5641      0.207639      0.206806     0.0346071     0.01087      0.966667      0.196833     0.01371    0.003726
       10.6412     0.0992361     0.0988194     0.04005    0.009159      0.520347      0.286019    0.008693    0.002671
       11.8405     0.0428056     0.0426389     0.04339     0.01062      0.226736      0.395463    0.00759    0.002464
       13.1741     0.0217847     0.0217014     0.05495     0.01408     0.0648472      0.85    0.006482    0.002423
       14.6583     0.0122847     0.0122431     0.07679     0.01915     0.0129236      0.372037    0.005071    0.001836
       16.3097    0.00411806    0.00410139      0.1677     0.03837    0.00140694     0.0865741    0.004903    0.001729
       18.1471   0.000420139   0.000418542       3.121      0.7763   4.34722e-05    0.00738426     0.02236    0.007243
       20.1915   6.92014e-07   6.89306e-07       2.111      0.2712   5.22986e-07   0.000168519    0.002916   0.0006121
       22.4661   8.05556e-12   8.02083e-12      0.9806     0.06725   3.83125e-09   6.41667e-07   0.0008912   1.322e-05
       24.9975   4.70139e-18   4.68333e-18      0.1979    0.008975   1.1375e-11   9.6713e-10    0.001588   0.0003785
       27.8134   1.19097e-19   1.18681e-19     0.01402    0.002089   4.71389e-13   2.98472e-11     0.06242     0.05985
       30.9469   4.93681e-16   4.91736e-16   0.0006927   0.0006727   2.41111e-11   1.71111e-09      0.3029     0.02135
       34.4332   1.57361e-12   1.56736e-12   0.0006709    0.002226   8.8125e-09   1.23981e-06      0.1474    0.005112
       38.312   2.72083e-11   2.71042e-11      0.3799    0.007237   6.3625e-09   1.15463e-05     0.0366    0.001144
       42.6292   6.92361e-13   6.89653e-13      0.2218    0.006289   3.89236e-09   1.8213e-06    0.005414   0.0001736
       47.4308   6.57014e-15   6.54444e-15      0.1128    0.00204   2.92361e-11   2.31713e-09   0.0003953   1.756e-05
       52.7734   3.57153e-15   3.55764e-15     0.0505   0.0003844   4.50347e-14   7.26852e-12   3.266e-05   1.826e-06
       58.7202   6.97917e-14   6.95139e-14     0.02064   4.983e-05   2.88472e-15   1.39583e-13   5.155e-06   2.619e-07
       65.3368   5.34792e-13   5.32708e-13    0.009691   6.558e-06   5.90278e-15   9.03241e-15   1.485e-06   5.498e-08
       72.6969   3.69444e-13   3.67986e-13    0.004944   1.429e-06   6.18056e-14   3.14398e-15   7.612e-07   2.621e-08
       80.8834   6.08889e-14   6.06528e-14    0.001257   2.837e-07   6.19653e-13   3.26667e-15   4.088e-07   7.939e-09
       89.9964   8.42361e-15   8.38889e-15   1.099e-07   8.142e-12   5.96667e-12   2.05231e-15   2.285e-10   8.269e-13
       100.137   1.18403e-15   1.17986e-15   4.003e-09   3.719e-13   4.64028e-11   1.30463e-14   2.717e-11   2.453e-14
       111.414   1.24097e-16   1.23611e-16   2.889e-10   4.045e-14   3.62639e-10   1.81343e-13   5.438e-12   1.577e-15
       123.97   2.98403e-18   2.97222e-18   2.699e-12   4.532e-16   6.95139e-10   4.02917e-14   1.584e-13   1.63e-17